time (s)	coil I (A)	last det (V)	int current (uC)
8787.655273	3.266394	94.531250	-25.292969
8787.657276	3.266579	35.932365	0.451868
8788.717794	3.266630	284.960937	-42.480469
8788.719796	3.267002	35.937019	0.475740
8789.739844	3.264999	90.527344	-43.945312
8789.741846	3.266671	90.527344	-43.945312
8789.743849	3.266965	35.936619	0.478985
8790.795876	3.266439	283.886719	-45.898437
8790.797877	3.267155	35.938709	0.552046
8791.825990	3.267078	92.089844	-42.968750
8791.827992	3.267406	35.941467	0.466807
8792.878589	3.266379	279.687500	-45.117187
8792.880591	3.266323	35.929558	0.458920
8793.902621	3.265183	92.480469	-43.945312
8793.906620	3.266824	92.480469	-43.945312
8793.908622	3.266669	35.933357	0.467475
8794.958708	3.265967	285.449219	-50.390625
8794.960710	3.266702	285.449219	-50.390625
8794.962711	3.266657	35.933228	0.480359
8795.992778	3.266578	85.937500	-64.941406
8795.994781	3.266828	35.935112	0.470214
8797.040795	3.266186	281.542969	-48.730469
8797.042796	3.266912	35.936035	0.469481
8798.071383	3.265301	87.988281	-61.132812
8798.073386	3.266617	87.988281	-61.132812
8798.075386	3.266343	35.929768	0.497919
8799.121452	3.266358	282.519531	-50.097656
8799.123451	3.267363	35.940998	0.469247
8800.154380	3.266813	85.937500	-63.964844
8800.156382	3.266560	35.932159	0.476104
8801.208434	3.265678	279.492187	-46.289062
8801.210435	3.266695	35.933651	0.485069
8802.234462	3.267375	92.187500	-45.898437
8802.236464	3.267373	35.941105	0.507225
8803.287439	3.266455	282.226562	-48.437500
8803.289441	3.266832	35.935158	0.467431
8804.322032	3.266440	87.207031	-68.554687
8804.324032	3.266778	35.934563	0.650371
8805.374070	3.266184	283.789062	-49.707031
8805.376072	3.266921	35.936131	0.478135
8806.398122	3.266877	90.917969	-54.394531
8806.400124	3.266929	35.936222	0.497663
8807.456658	3.264189	278.710937	-44.140625
8807.458659	3.266839	278.710937	-44.140625
8807.460658	3.267114	35.938251	0.465774
8808.484688	3.267311	85.742187	-74.218750
8808.486688	3.267454	35.941990	0.509386
8809.534745	3.266007	282.324219	-48.144531
8809.536746	3.266604	35.932648	0.486529
8810.561744	3.266067	91.308594	-55.664062
8810.563750	3.266557	35.932125	0.509674
8811.620343	3.264208	280.468750	-43.652344
8811.622343	3.266441	280.468750	-43.652344
8811.624344	3.266464	35.931099	0.484583
8812.646402	3.264142	87.402344	-72.949219
8812.648404	3.266332	87.402344	-72.949219
8812.650404	3.266642	35.933067	0.514975
8813.698467	3.266042	282.128906	-46.679687
8813.700468	3.266561	35.932167	0.489671
8814.726562	3.265222	90.039062	-63.281250
8814.728560	3.265286	90.039062	-63.281250
8814.730562	3.266745	35.934200	0.502882
8815.784629	3.265306	278.125000	-42.871094
8815.786629	3.266663	278.125000	-42.871094
8815.788629	3.266588	35.932472	0.499601
8816.810673	3.266162	88.671875	-70.214844
8816.812676	3.266194	35.928139	0.634882
8817.862690	3.266152	280.371094	-46.289062
8817.864691	3.266481	35.931293	0.486814
8818.894711	3.263795	86.523437	-77.539062
8818.896713	3.266384	86.523437	-77.539062
8818.898714	3.266788	35.934669	0.502995
8819.948815	3.266078	277.246094	-42.968750
8819.950817	3.266675	35.933418	0.515967
8820.974847	3.265850	93.261719	-60.742187
8820.976849	3.265871	35.924583	0.519009
8822.027414	3.264438	278.710937	-43.847656
8822.029416	3.266250	278.710937	-43.847656
8822.031417	3.266541	35.931950	0.495833
8823.059464	3.266324	95.605469	-57.519531
8823.061465	3.266429	35.930717	0.510497
8824.112480	3.265273	278.125000	-42.968750
8824.114481	3.266879	278.125000	-42.968750
8824.116482	3.267157	35.938728	0.515142
8825.142533	3.265082	90.234375	-76.464844
8825.144534	3.266554	90.234375	-76.464844
8825.146533	3.266870	35.935574	0.507982
8826.194590	3.266839	280.468750	-44.238281
8826.196592	3.266928	35.936211	0.641998
8827.221181	3.264763	97.070312	-55.566406
8827.223183	3.266301	97.070312	-55.566406
8827.225183	3.266729	35.934021	0.509875
8828.277209	3.265738	280.761719	-41.308594
8828.279211	3.266886	280.761719	-41.308594
8828.281210	3.267180	35.938984	0.517440
8829.301282	3.265682	96.777344	-57.714844
8829.303285	3.266971	96.777344	-57.714844
8829.305284	3.267395	35.941349	0.524329
8830.359843	3.266152	280.566406	-38.183594
8830.361843	3.266676	35.933437	0.507878
8831.383887	3.264792	93.457031	-66.503906
8831.385889	3.265848	93.457031	-66.503906
8831.387889	3.266596	35.932552	0.515108
8832.445973	3.266619	279.199219	-33.593750
8832.447974	3.266724	35.933960	0.523092
8833.466001	3.265721	93.359375	-69.238281
8833.468004	3.265787	93.359375	-69.238281
8833.470004	3.267308	35.940392	0.532849
8834.530047	3.266585	279.687500	-33.007812
8834.532048	3.266555	35.932110	0.506643
8835.550139	3.265933	94.140625	-70.507812
8835.554144	3.267009	94.140625	-70.507812
8835.556148	3.267032	35.937355	0.532395
8836.610244	3.264565	280.664062	-35.351562
8836.612245	3.266447	280.664062	-35.351562
8836.614245	3.266932	35.936256	0.517504
8837.634311	3.266500	93.164062	-77.734375
8837.636312	3.266658	35.933243	0.536609
8838.690377	3.266638	284.277344	-42.285156
8838.692379	3.267353	35.940880	0.508484
8839.716419	3.266950	94.335937	-73.535156
8839.718421	3.267204	35.939243	0.618349
8840.770970	3.265122	279.980469	-41.503906
8840.772972	3.266049	279.980469	-41.503906
8840.774971	3.266912	35.936035	0.511302
8841.797527	3.267262	88.964844	-91.503906
8841.799530	3.266920	35.936123	0.781064
8842.853511	3.266919	278.515625	-42.089844
8842.855513	3.267279	35.940063	0.513086
8843.882082	3.266958	92.285156	-80.468750
8843.884084	3.267345	35.940792	0.544590
8844.934653	3.266103	278.515625	-42.871094
8844.936660	3.266634	35.932968	0.540351
8845.963670	3.267283	95.410156	-72.460937
8845.965672	3.267180	35.938984	0.548355
8847.021740	3.266303	272.753906	-38.574219
8847.023740	3.266727	35.933998	0.652696
8848.047765	3.267095	94.042969	-78.222656
8848.049766	3.266766	35.934422	0.546122
8849.102359	3.266718	275.585937	-40.527344
8849.106360	3.266608	35.932682	0.578423
8850.124365	3.265905	94.921875	-76.464844
8850.126369	3.266578	35.932354	0.549456
8851.182953	3.265242	278.027344	-41.503906
8851.184955	3.266685	278.027344	-41.503906
8851.186954	3.267213	35.939339	0.522817
8852.211519	3.265746	90.039062	-95.605469
8852.213520	3.266231	90.039062	-95.605469
8852.215520	3.266489	35.931381	0.555062
8853.265604	3.266541	280.175781	-41.601562
8853.267607	3.266508	35.931583	0.528416
8854.290583	3.266219	94.824219	-84.472656
8854.292585	3.266482	35.931301	0.559548
8855.348654	3.265145	278.710937	-37.890625
8855.350655	3.266757	278.710937	-37.890625
8855.352655	3.267176	35.938942	0.525614
8856.370711	3.266499	97.265625	-78.515625
8856.372713	3.266821	35.935032	0.558447
8857.431287	3.265332	278.027344	-34.375000
8857.433289	3.266840	278.027344	-34.375000
8857.435286	3.267336	35.940697	0.538315
8858.455293	3.264799	94.531250	-86.425781
8858.457294	3.266268	94.531250	-86.425781
8858.459295	3.266634	35.932976	0.558860
8859.513368	3.266978	281.738281	-35.546875
8859.515369	3.266596	35.932560	0.537055
8860.535397	3.265558	97.851562	-75.488281
8860.537398	3.266492	97.851562	-75.488281
8860.539400	3.266553	35.932083	0.557995
8861.595946	3.265064	277.636719	-33.203125
8861.597949	3.266703	277.636719	-33.203125
8861.599949	3.267090	35.937992	0.551082
8862.618544	3.266453	95.996094	-82.617187
8862.620550	3.266737	35.934101	0.559210
8863.676633	3.265776	275.292969	-34.179687
8863.678635	3.265800	35.923801	0.554356
8864.702675	3.265309	91.699219	-96.289062
8864.704677	3.267320	91.699219	-96.289062
8864.706677	3.267210	35.939312	0.554113
8865.756659	3.266391	270.214844	-34.179687
8865.758661	3.266843	35.935272	0.553559
8866.788668	3.266505	91.796875	-99.218750
8866.790671	3.266847	35.935314	0.553234
8867.840697	3.266600	272.460937	-37.695312
8867.842697	3.266545	35.931992	0.552245
8868.865242	3.265017	97.265625	-89.355469
8868.867242	3.266874	97.265625	-89.355469
8868.869242	3.267072	35.937798	0.559280
8869.923336	3.266095	269.238281	-36.425781
8869.925338	3.266787	35.934662	0.557992
8870.951332	3.265071	94.238281	-100.097656
8870.953336	3.266356	94.238281	-100.097656
8870.955335	3.266910	35.936008	0.571322
8872.005381	3.267217	272.753906	-40.039062
8872.007381	3.267494	35.942432	0.555086
8873.036331	3.266608	90.234375	-109.375000
8873.038329	3.266675	35.933426	0.566480
8874.084358	3.266281	271.484375	-40.234375
8874.086359	3.266480	35.931286	0.560456
8875.116886	3.265026	89.257812	-112.109375
8875.118887	3.265083	89.257812	-112.109375
8875.120888	3.267118	35.938293	0.572122
8876.165430	3.264777	270.996094	-39.257812
8876.167431	3.266086	270.996094	-39.257812
8876.169436	3.266876	35.935635	0.561726
8877.197483	3.264823	89.843750	-110.742187
8877.199486	3.266507	89.843750	-110.742187
8877.201488	3.266774	35.934509	0.581279
8878.251551	3.266367	265.527344	-35.351562
8878.253552	3.267069	35.937763	0.597063
8879.279554	3.265630	93.652344	-99.023437
8879.281556	3.266613	93.652344	-99.023437
8879.283554	3.266837	35.935207	0.579579
8880.332105	3.266096	268.261719	-37.500000
8880.334106	3.267217	35.939392	0.566292
8881.366168	3.266562	87.792969	-118.066406
8881.370169	3.266475	35.931229	0.581682
8882.414234	3.266888	268.554687	-37.695312
8882.418234	3.267251	35.939754	0.663952
8883.448273	3.267014	87.695312	-119.433594
8883.450277	3.267191	35.939102	0.594970
8884.496299	3.265737	268.359375	-37.890625
8884.498301	3.266347	268.359375	-37.890625
8884.500300	3.266494	35.931435	0.572323
8885.526329	3.265440	90.722656	-111.816406
8885.528331	3.266488	90.722656	-111.816406
8885.530331	3.266911	35.936024	0.591972
8886.580399	3.266057	264.843750	-35.449219
8886.582400	3.266865	35.935509	0.570673
8887.610406	3.264610	91.015625	-113.281250
8887.612408	3.266412	91.015625	-113.281250
8887.614408	3.266575	35.932327	0.589138
8888.660480	3.265616	265.332031	-35.644531
8888.662483	3.266654	265.332031	-35.644531
8888.664482	3.267051	35.937565	0.579734
8889.696543	3.266327	92.675781	-111.621094
8889.698545	3.266393	35.930328	0.587955
8890.745136	3.266482	267.382812	-36.816406
8890.747138	3.266623	35.932854	0.577759
8891.777678	3.266658	94.335937	-107.226562
8891.779682	3.266280	35.929077	0.700642
8892.826248	3.266173	267.382812	-36.035156
8892.828249	3.266810	35.934910	0.665978
8893.856292	3.267110	99.023437	-98.925781
8893.858294	3.267226	35.939491	0.586356
8894.909288	3.266463	265.234375	-33.691406
8894.913286	3.267072	35.937790	0.780694
8895.937345	2.589106	96.093750	-109.179687
8895.939347	3.267071	96.093750	-109.179687
8895.941346	3.267577	35.943348	0.587083
8896.991446	3.266877	269.628906	-35.839844
8896.993447	3.266785	35.934635	0.967462
8898.019460	3.264929	98.632812	-101.464844
8898.021462	3.266714	98.632812	-101.464844
8898.023462	3.267216	35.939377	0.585945
8899.076423	3.266753	269.628906	-33.398437
8899.080426	3.266620	35.932823	0.589499
8900.103414	3.266624	98.632812	-100.878906
8900.105416	3.266829	35.935123	0.591718
8901.158002	3.266121	265.234375	-27.929687
8901.160003	3.266807	35.934879	0.593030
8902.182059	3.264490	96.875000	-104.199219
8902.184066	3.266419	96.875000	-104.199219
8902.186071	3.266332	35.929653	0.595278
8903.240110	3.264750	267.578125	-26.757812
8903.242113	3.266072	267.578125	-26.757812
8903.246110	3.266288	35.929165	0.591986
8904.264125	3.264970	98.535156	-101.660156
8904.266126	3.266270	98.535156	-101.660156
8904.268128	3.266659	35.933250	0.600531
8905.322199	2.879745	267.578125	-25.781250
8905.324200	3.267102	267.578125	-25.781250
8905.326200	3.267413	35.941547	0.594077
8906.348298	3.266507	95.214844	-115.332031
8906.350299	3.266887	35.935760	0.753795
8907.404769	3.265534	268.847656	-27.832031
8907.408769	3.267341	268.847656	-27.832031
8907.412769	3.267132	35.938454	0.591909
8908.428824	3.265208	96.679687	-114.746094
8908.430825	3.266409	96.679687	-114.746094
8908.432825	3.266787	35.934654	0.606600
8909.488851	3.266927	271.582031	-31.933594
8909.490854	3.266904	35.935944	0.587366
8910.510866	3.265773	98.437500	-112.109375
8910.512869	3.266767	98.437500	-112.109375
8910.514867	3.267051	35.937557	0.614145
8911.569410	3.266057	266.894531	-30.761719
8911.571411	3.266749	35.934242	0.605618
8912.595532	3.266036	95.214844	-121.777344
8912.601532	3.266763	35.934395	0.636907
8913.651590	3.266597	263.183594	-29.980469
8913.653593	3.266643	35.933075	0.586760
8914.675596	3.266081	96.582031	-117.871094
8914.677599	3.267284	96.582031	-117.871094
8914.679598	3.267452	35.941971	0.620767
8915.731639	3.264930	263.964844	-31.445312
8915.733639	3.266798	263.964844	-31.445312
8915.735639	3.266975	35.936726	0.590689
8916.761647	3.266573	90.332031	-137.011719
8916.763648	3.267026	35.937283	0.617218
8917.815706	3.266192	266.015625	-32.714844
8917.817708	3.266461	35.931068	0.593862
8918.840301	3.265699	95.996094	-122.167969
8918.842303	3.266524	95.996094	-122.167969
8918.844302	3.267068	35.937744	0.626532
8919.898308	3.266208	263.378906	-30.273437
8919.900312	3.266768	35.934448	0.593629
8920.924353	3.266032	92.773437	-132.324219
8920.928355	3.266931	35.936237	0.623680
8921.978402	3.262702	264.550781	-30.078125
8921.980404	3.266598	264.550781	-30.078125
8921.982404	3.267367	35.941040	0.595429
8923.004455	3.266023	100.488281	-114.453125
8923.006457	3.266232	35.928555	0.660184
8924.061449	3.265318	262.695312	-27.050781
8924.063451	3.266658	262.695312	-27.050781
8924.065452	3.266662	35.933277	0.597184
8925.087450	3.266207	93.457031	-136.328125
8925.091450	3.266605	35.932655	0.626947
8926.145945	3.266173	264.257812	-26.171875
8926.147947	3.266181	35.927986	0.604329
8927.170032	3.266266	99.707031	-118.066406
8927.174034	3.267126	35.938381	0.633003
8928.226592	3.266505	264.746094	-24.414062
8928.228595	3.267085	35.937939	0.610348
8929.250679	3.266140	99.609375	-117.089844
8929.252679	3.266787	35.934654	0.630897
8930.308719	3.266045	265.722656	-24.707031
8930.310725	3.266657	35.933228	0.615941
8931.335336	3.266048	95.703125	-127.734375
8931.337338	3.266964	35.936600	0.627606
8932.391456	3.265894	260.253906	-23.144531
8932.393457	3.265947	35.925415	0.654271
8933.417477	3.266339	99.218750	-118.457031
8933.419479	3.266522	35.931744	0.632225
8934.474089	3.266553	264.453125	-28.125000
8934.476091	3.266857	35.935432	0.617339
8935.498111	3.264784	99.316406	-120.800781
8935.502111	3.266298	99.316406	-120.800781
8935.506111	3.266642	35.933067	0.627308
8936.552178	3.266934	262.890625	-29.882812
8936.554182	3.266822	35.935040	0.626658
8937.585148	3.265864	97.558594	-133.398437
8937.591148	3.266564	35.932205	0.647299
8938.633196	3.264725	258.691406	-28.613281
8938.635200	3.266687	258.691406	-28.613281
8938.637197	3.267313	35.940437	0.628133
8939.665202	3.265968	96.679687	-133.886719
8939.667202	3.266680	96.679687	-133.886719
8939.669203	3.267213	35.939339	0.627278
8940.715223	3.264698	258.300781	-29.882812
8940.717225	3.266656	258.300781	-29.882812
8940.719226	3.266591	35.932495	0.629777
8941.751284	3.266801	98.535156	-128.906250
8941.753285	3.267042	35.937462	0.631624
8942.799811	3.264105	255.664062	-28.515625
8942.801812	3.266355	255.664062	-28.515625
8942.803811	3.266689	35.933578	0.631170
8943.837858	3.266688	89.746094	-154.785156
8943.839861	3.266756	35.934315	0.774454
8944.881915	3.266040	257.910156	-30.078125
8944.883917	3.266582	35.932400	0.634617
8945.916518	3.265962	92.578125	-148.046875
8945.918521	3.266764	35.934402	0.641815
8946.966614	3.266804	255.761719	-29.101562
8946.968615	3.266900	35.935902	0.631572
8947.996624	3.266711	93.261719	-145.605469
8947.998625	3.266952	93.261719	-145.605469
8948.000627	3.267147	35.938614	0.647947
8949.046644	3.266553	257.910156	-30.566406
8949.048648	3.266855	35.935406	0.634208
8950.077208	3.263386	94.335937	-142.382812
8950.079210	3.265924	94.335937	-142.382812
8950.081210	3.266422	35.930645	0.648078
8951.129259	3.267309	257.519531	-30.859375
8951.131262	3.267309	35.940403	0.637449
8952.159847	3.265497	92.675781	-148.046875
8952.161848	3.266455	92.675781	-148.046875
8952.163849	3.266933	35.936264	0.650156
8953.211924	3.265742	257.031250	-30.273437
8953.213925	3.266816	35.934978	0.638564
8954.244888	3.265603	94.726562	-144.921875
8954.246889	3.266623	94.726562	-144.921875
8954.248891	3.266681	35.933491	0.649284
8955.292893	3.266210	254.394531	-28.417969
8955.294895	3.267086	35.937950	0.644098
8956.328989	3.266579	91.699219	-154.785156
8956.330990	3.266577	35.932346	0.648640
8957.377021	3.266243	253.808594	-27.832031
8957.379022	3.266584	35.932426	0.683696
8958.407098	3.266439	99.414062	-136.718750
8958.409103	3.266892	35.935810	0.652562
8959.459619	3.266150	252.441406	-26.562500
8959.461621	3.266691	35.933605	0.646053
8960.491644	3.266615	98.437500	-141.699219
8960.493647	3.266932	35.936249	0.649417
8961.540215	3.266112	251.660156	-25.488281
8961.542219	3.266942	35.936363	0.648308
8962.574264	3.266347	96.777344	-147.656250
8962.576267	3.266422	96.777344	-147.656250
8962.578268	3.266143	35.927570	0.649613
8963.622295	3.264805	254.785156	-25.878906
8963.624297	3.266291	254.785156	-25.878906
8963.626297	3.266197	35.928165	0.650666
8964.652382	3.266187	100.292969	-137.500000
8964.654385	3.267190	35.939091	0.653267
8965.706981	3.265957	252.050781	-23.046875
8965.714980	3.266253	35.928787	0.651409
8966.735013	3.264920	100.488281	-137.109375
8966.737014	3.266556	100.488281	-137.109375
8966.739014	3.266359	35.929943	0.653621
8967.787565	3.264476	252.148437	-20.605469
8967.789568	3.266427	252.148437	-20.605469
8967.791567	3.267092	35.938011	0.657230
8968.818096	3.266514	100.683594	-134.570312
8968.820097	3.266824	35.935059	0.656860
8969.870643	3.264745	255.175781	-19.726562
8969.872645	3.266854	255.175781	-19.726562
8969.874644	3.267192	35.939110	0.657568
8970.902707	3.266451	100.683594	-135.449219
8970.904710	3.266762	35.934376	0.662923
8971.953296	3.264312	257.324219	-19.726562
8971.955296	3.266589	257.324219	-19.726562
8971.957297	3.266456	35.931019	0.656395
8972.981914	3.266409	103.320312	-132.031250
8972.983916	3.266927	35.936195	0.670342
8974.040863	3.267140	252.636719	-18.457031
8974.042866	3.266952	35.936466	0.826208
8975.062919	3.265867	98.632812	-147.656250
8975.064921	3.266716	98.632812	-147.656250
8975.066920	3.267211	35.939320	0.672952
8976.120989	3.265775	251.171875	-18.847656
8976.122991	3.266422	35.930637	0.645828
8977.145037	3.266129	97.460937	-152.929687
8977.147037	3.266704	35.933739	0.674305
8978.201118	3.265095	251.464844	-20.605469
8978.203118	3.266258	251.464844	-20.605469
8978.205119	3.266464	35.931107	0.650258
8979.227175	3.266523	98.046875	-152.441406
8979.229179	3.267331	35.940643	0.700132
8980.283242	3.265752	251.953125	-22.167969
8980.285244	3.266622	251.953125	-22.167969
8980.287244	3.266737	35.934101	0.647815
8981.309273	3.265663	99.511719	-148.144531
8981.311275	3.266621	99.511719	-148.144531
8981.313275	3.266693	35.933624	0.677369
8982.363825	3.263139	249.707031	-21.582031
8982.365824	3.266335	249.707031	-21.582031
8982.369822	3.267003	35.937035	0.654624
8983.393846	3.267189	100.097656	-147.656250
8983.395848	3.267372	35.941093	0.675546
8984.448409	3.266459	254.492187	-24.804687
8984.450410	3.266940	35.936344	0.646598
8985.477402	3.266351	90.917969	-172.656250
8985.479402	3.266318	35.929501	0.677788
8986.531367	3.266617	248.046875	-20.605469
8986.533369	3.266918	35.936096	0.709124
8987.557359	3.266443	93.066406	-170.214844
8987.559358	3.267242	35.939659	0.683191
8988.611412	3.265953	253.027344	-21.972656
8988.613415	3.266734	253.027344	-21.972656
8988.615414	3.267182	35.939003	0.651230
8989.639435	3.265803	100.488281	-150.097656
8989.641437	3.267059	100.488281	-150.097656
8989.643436	3.266854	35.935394	0.690901
8990.695992	3.265629	248.144531	-18.164062
8990.697995	3.266349	248.144531	-18.164062
8990.699994	3.266882	35.935707	0.654528
8991.722051	3.266007	94.921875	-167.480469
8991.724054	3.266119	35.927315	0.687113
8992.778157	3.266421	253.417969	-18.847656
8992.780157	3.266462	35.931080	0.667145
8993.802723	3.265396	99.609375	-154.003906
8993.804725	3.266707	99.609375	-154.003906
8993.806726	3.267110	35.938206	0.690076
8994.860761	3.265393	246.777344	-14.746094
8994.862764	3.265962	246.777344	-14.746094
8994.864764	3.266433	35.930759	0.667170
8995.883235	3.265002	99.414062	-153.125000
