time (s)	coil I (A)	last det (V)	int current (uC)
9197.049313	3.266065	117.968750	-228.320312
9197.051313	3.266417	35.930584	0.387004
9198.105804	3.264524	168.945312	27.734375
9198.107806	3.266392	168.945312	27.734375
9198.109805	3.266293	35.929218	0.348662
9199.129863	3.265140	118.261719	-228.125000
9199.131867	3.266809	118.261719	-228.125000
9199.133867	3.267279	35.940063	0.384747
9200.185927	3.265320	169.335937	26.757812
9200.187928	3.266365	169.335937	26.757812
9200.189928	3.266634	35.932968	0.378420
9201.215971	3.267579	124.023437	-223.242187
9201.217972	3.267431	124.023437	-223.242187
9201.219974	3.267172	35.938896	0.399546
9202.274572	3.264557	170.605469	24.707031
9202.276575	3.266145	170.605469	24.707031
9202.278574	3.266335	35.929680	0.379546
9203.298634	3.264706	115.722656	-231.835937
9203.300636	3.266346	115.722656	-231.835937
9203.302637	3.266912	35.936035	0.403218
9204.348672	3.265985	169.726562	28.320312
9204.350671	3.266774	169.726562	28.320312
9204.352673	3.267311	35.940418	0.359394
9205.381235	3.266682	118.750000	-229.199219
9205.383236	3.266640	35.933041	0.381419
9206.439263	3.266637	171.972656	27.050781
9206.441264	3.266535	35.931885	0.387205
9207.457856	3.265916	125.097656	-222.460937
9207.461857	3.266521	35.931736	0.409985
9208.519893	3.264551	172.070312	28.125000
9208.521894	3.266338	172.070312	28.125000
9208.523897	3.266500	35.931496	0.376864
9209.548475	3.266333	122.167969	-225.292969
9209.550477	3.266519	35.931709	0.402151
9210.605031	3.265617	174.804687	27.246094
9210.607032	3.267240	174.804687	27.246094
9210.609034	3.267313	35.940437	0.390354
9211.627166	3.266753	125.390625	-220.996094
9211.629169	3.267017	35.937187	0.559489
9212.681802	3.265962	173.925781	29.882812
9212.683804	3.266373	35.930103	0.451713
9213.707844	3.266276	118.945312	-225.390625
9213.709847	3.266418	35.930599	0.418726
9214.763868	3.265463	173.144531	30.957031
9214.765869	3.266810	173.144531	30.957031
9214.767870	3.266898	35.935883	0.384297
9215.788432	3.266712	126.367187	-215.722656
9215.790436	3.266999	35.936993	0.411454
9216.848976	3.264313	173.339844	29.199219
9216.850978	3.266531	173.339844	29.199219
9216.852981	3.266775	35.934525	0.378298
9217.873026	3.264431	116.406250	-225.390625
9217.875027	3.266105	116.406250	-225.390625
9217.877028	3.266088	35.926968	0.421548
9218.935070	3.264787	174.218750	24.121094
9218.937072	3.266384	174.218750	24.121094
9218.939072	3.266608	35.932682	0.396592
9219.955152	3.266371	120.800781	-222.558594
9219.957153	3.266863	35.935493	0.436401
9221.009182	3.263483	174.023437	23.339844
9221.011184	3.266390	174.023437	23.339844
9221.013182	3.266551	35.932064	0.387346
9222.041215	3.266786	123.828125	-221.484375
9222.043217	3.266857	35.935425	0.419991
9223.095806	3.266233	175.097656	20.117187
9223.097807	3.266687	35.933552	0.389149
9224.123847	3.266658	118.847656	-227.441406
9224.125849	3.266703	118.847656	-227.441406
9224.127847	3.266953	35.936485	0.418549
9225.173916	3.266231	174.121094	20.898437
9225.175917	3.267386	174.121094	20.898437
9225.177917	3.267234	35.939571	0.392145
9226.202008	3.266031	122.167969	-223.339844
9226.204009	3.266815	122.167969	-223.339844
9226.206011	3.267050	35.937550	0.429047
9227.258577	3.266450	174.707031	19.042969
9227.260579	3.266813	35.934944	0.398733
9228.286634	3.263302	118.750000	-226.464844
9228.290633	3.266977	118.750000	-226.464844
9228.292635	3.267114	35.938259	0.424266
9229.341227	3.265718	175.585937	18.261719
9229.345229	3.267223	175.585937	18.261719
9229.347231	3.267442	35.941864	0.400311
9230.369258	3.266335	122.363281	-221.972656
9230.371260	3.266933	35.936264	0.439445
9231.419275	3.266331	175.488281	19.238281
9231.421279	3.266293	35.929218	0.644925
9232.447341	3.265767	123.242187	-220.507812
9232.449343	3.266767	123.242187	-220.507812
9232.451344	3.266927	35.936203	0.421809
9233.503401	3.265906	175.000000	20.117187
9233.505401	3.266366	35.930027	0.407416
9234.533968	3.264975	117.773437	-226.562500
9234.537970	3.266297	117.773437	-226.562500
9234.539970	3.266572	35.932293	0.439912
9235.584525	3.266271	176.074219	19.433594
9235.586527	3.266677	35.933445	0.430024
9236.622615	3.267050	118.457031	-225.781250
9236.624614	3.266721	35.933926	0.431534
9237.667205	3.266540	175.976562	20.019531
9237.669208	3.266648	35.933125	0.418307
9238.697754	3.265543	112.890625	-231.738281
9238.699755	3.266574	112.890625	-231.738281
9238.701754	3.266951	35.936459	0.443789
9239.745836	3.266038	175.878906	20.117187
9239.747838	3.266160	175.878906	20.117187
9239.749836	3.266478	35.931255	0.402699
9240.779926	3.266093	117.968750	-226.464844
9240.781928	3.267034	35.937370	0.440143
9241.833976	3.200109	178.515625	16.699219
9241.835977	3.266835	35.935181	0.468974
9242.866000	3.266235	109.570312	-236.621094
9242.868002	3.266907	35.935978	0.443239
9243.913997	3.266043	178.027344	18.164062
9243.915998	3.266961	178.027344	18.164062
9243.917999	3.267151	35.938663	0.415180
9244.946083	3.266406	123.437500	-221.093750
9244.948083	3.266626	35.932888	0.443735
9245.996125	3.265955	179.394531	17.968750
9245.998126	3.266641	35.933048	0.413911
9247.024225	3.266072	118.945312	-226.171875
9247.026228	3.266866	35.935528	0.451600
9248.080280	3.265168	179.980469	18.164062
9248.082280	3.266260	179.980469	18.164062
9248.084280	3.266520	35.931717	0.428880
9249.108293	3.264971	120.703125	-223.535156
9249.110294	3.266874	120.703125	-223.535156
9249.112295	3.266892	35.935810	0.463773
9250.160339	3.265404	178.125000	21.972656
9250.162342	3.266503	178.125000	21.972656
9250.164343	3.266554	35.932091	0.422236
9251.190363	3.266040	117.578125	-224.023437
9251.192365	3.266344	35.929787	0.523060
9252.248458	3.266683	181.835937	19.726562
9252.250460	3.266550	181.835937	19.726562
9252.252459	3.266963	35.936592	0.419139
9253.270493	3.266608	116.601562	-223.535156
9253.272496	3.266934	35.936272	0.451310
9254.332485	3.266809	181.542969	22.949219
9254.334491	3.266804	35.934845	0.788758
9255.351407	3.265745	122.558594	-216.894531
9255.353410	3.266601	35.932613	0.464983
9256.407445	3.266496	182.714844	23.730469
9256.409446	3.266874	35.935616	0.426464
9257.429491	3.265083	121.972656	-218.457031
9257.431491	3.266178	121.972656	-218.457031
9257.433493	3.266041	35.926453	0.462200
9258.497522	3.267019	183.593750	22.851562
9258.499524	3.267180	35.938984	0.468013
9259.514080	3.266962	120.019531	-222.265625
9259.516083	3.267140	35.938541	0.468598
9260.582163	3.266323	185.156250	19.921875
9260.584165	3.267038	35.937416	0.430473
9261.598211	3.266359	127.246094	-216.113281
9261.600214	3.266886	35.935753	0.472220
9262.660198	3.267237	186.035156	17.773437
9262.662199	3.267346	35.940811	0.425433
9263.678277	3.265572	124.902344	-218.945312
9263.680277	3.266337	124.902344	-218.945312
9263.682278	3.266416	35.930573	0.464230
9264.746292	3.267077	185.449219	17.285156
9264.748292	3.267175	35.938923	0.437801
9265.758348	3.264303	120.312500	-223.535156
9265.760349	3.266449	120.312500	-223.535156
9265.762350	3.266666	35.933331	0.472573
9266.824411	3.265862	184.960937	17.773437
9266.826412	3.266584	35.932426	0.437504
9267.848499	3.267348	116.601562	-227.441406
9267.850500	3.267306	35.940369	0.480981
9268.906610	3.266090	185.644531	16.406250
9268.908613	3.267021	35.937229	0.497532
9269.926635	3.263024	117.285156	-226.660156
9269.928637	3.265817	117.285156	-226.660156
9269.930637	3.266431	35.930740	0.478161
9270.986715	3.266110	185.156250	18.164062
9270.988716	3.266626	35.932888	0.433613
9272.009277	3.266293	123.828125	-219.042969
9272.011280	3.266841	35.935253	0.474075
9273.069866	3.265157	188.085937	15.917969
9273.071869	3.266600	188.085937	15.917969
9273.073868	3.266985	35.936832	0.446762
9274.087904	3.266609	125.488281	-216.992187
9274.089907	3.266761	35.934368	0.479658
9275.154434	3.264691	189.062500	16.503906
9275.156435	3.266745	189.062500	16.503906
9275.158436	3.267015	35.937160	0.446169
9276.172490	3.264850	117.382812	-224.609375
9276.174491	3.266656	117.382812	-224.609375
9276.176491	3.267286	35.940147	0.487701
9277.234566	3.266373	187.597656	20.214844
9277.236565	3.266883	35.935715	0.449159
9278.256660	3.266570	122.949219	-216.601562
9278.258660	3.266751	35.934261	0.535373
9279.315227	3.265127	187.792969	20.117187
9279.317228	3.266514	187.792969	20.117187
9279.319232	3.266936	35.936291	0.454286
9280.335289	3.265407	121.289062	-216.308594
9280.337291	3.266982	121.289062	-216.308594
9280.339291	3.267306	35.940369	0.498530
9281.397336	3.265402	187.695312	19.433594
9281.399338	3.266528	187.695312	19.433594
9281.401339	3.266906	35.935963	0.453220
9282.421438	3.265965	114.746094	-222.949219
9282.423441	3.266778	35.934563	0.492196
9283.479522	3.264215	187.402344	16.992187
9283.481524	3.266176	187.402344	16.992187
9283.483525	3.266492	35.931416	0.462451
9284.505611	3.265435	114.355469	-223.144531
9284.507613	3.266447	35.930912	0.504502
9285.561639	3.265746	187.890625	14.648437
9285.563641	3.266162	35.927784	0.465012
9286.585665	3.265923	119.824219	-218.554687
9286.587669	3.266430	35.930733	0.504694
9287.647737	3.266828	187.597656	12.695312
9287.649736	3.267049	187.597656	12.695312
9287.651737	3.267110	35.938206	0.454846
9288.671814	3.266779	120.703125	-219.628906
9288.673815	3.266924	35.936165	0.497895
9289.726388	3.266383	187.988281	11.523437
9289.728395	3.266532	35.931850	0.465615
9290.752467	3.265012	114.843750	-226.171875
9290.756468	3.266395	114.843750	-226.171875
9290.758470	3.266880	35.935680	0.501293
9291.806504	3.265901	188.476562	10.156250
9291.808506	3.266858	188.476562	10.156250
9291.810505	3.267200	35.939198	0.468261
9292.836587	3.265476	109.082031	-233.105469
9292.838590	3.266218	109.082031	-233.105469
9292.840588	3.266634	35.932968	0.503129
9293.888654	3.265929	187.011719	11.816406
9293.890656	3.266672	35.933395	0.467628
9294.916656	3.265802	120.996094	-219.140625
9294.918657	3.266607	35.932674	0.499689
9295.976695	3.266894	187.792969	10.839844
9295.978698	3.266913	35.936043	0.472402
9296.998750	3.265422	115.820312	-225.000000
9297.000752	3.266825	115.820312	-225.000000
9297.002754	3.267290	35.940193	0.511220
9298.052822	3.266068	189.941406	8.398437
9298.054824	3.266822	189.941406	8.398437
9298.056823	3.267249	35.939739	0.473166
9299.082841	3.262993	118.652344	-221.972656
9299.084843	3.266459	118.652344	-221.972656
9299.086843	3.266847	35.935314	0.506403
9300.136868	3.267093	191.308594	8.203125
9300.138873	3.267525	35.942776	0.483005
9301.162904	3.264064	111.035156	-230.859375
9301.164905	3.266213	111.035156	-230.859375
9301.166905	3.266867	35.935539	0.512762
9302.217406	3.265655	190.429687	9.570312
9302.219406	3.266709	190.429687	9.570312
9302.221407	3.266526	35.931782	0.483913
9303.247503	3.266034	114.550781	-225.488281
9303.251504	3.266341	35.929752	0.578555
9304.297587	3.264357	190.332031	9.863281
9304.299588	3.266518	190.332031	9.863281
9304.301590	3.266985	35.936832	0.484069
9305.327669	3.266477	113.476562	-226.953125
9305.329671	3.266927	35.936195	0.512032
9306.383701	3.266058	192.089844	8.691406
9306.385701	3.266989	35.936874	0.486296
9307.411747	3.264760	117.480469	-222.070312
9307.413751	3.266537	117.480469	-222.070312
9307.415749	3.266810	35.934910	0.522215
9308.464332	3.266223	191.210937	10.546875
9308.466334	3.266529	35.931816	0.483748
9309.493254	3.265759	112.792969	-226.953125
9309.495256	3.266715	35.933865	0.518187
9310.549316	3.265114	193.359375	8.691406
9310.551323	3.266460	193.359375	8.691406
9310.553320	3.266784	35.934624	0.488826
9311.573389	3.265660	118.359375	-218.261719
9311.575390	3.265717	35.922890	0.527953
9312.633421	3.266623	193.066406	9.179687
9312.635424	3.266687	35.933552	0.582017
9313.661384	3.266717	119.140625	-215.917969
9313.667383	3.266603	35.932629	0.538033
9314.711974	3.267184	192.675781	12.988281
9314.713975	3.267231	35.939537	0.493455
9315.738937	3.264996	114.062500	-219.628906
9315.740937	3.265982	114.062500	-219.628906
9315.742939	3.266333	35.929661	0.535755
9316.795008	3.265916	193.261719	14.257812
9316.797014	3.266437	35.930805	0.491390
9317.821972	3.266278	118.750000	-214.355469
9317.823973	3.266902	35.935921	0.555177
9318.876000	3.266604	195.410156	13.964844
9318.878003	3.267020	35.937222	0.568756
9319.900489	3.266441	120.996094	-209.375000
9319.902488	3.266692	35.933613	0.521084
9320.953036	3.266834	194.140625	16.113281
9320.955037	3.266927	35.936195	0.509343
9321.987593	3.265739	122.753906	-211.718750
9321.989597	3.267046	122.753906	-211.718750
9321.991598	3.267337	35.940704	0.540679
9323.038170	3.265481	197.363281	14.550781
9323.040172	3.266807	197.363281	14.550781
9323.042172	3.267548	35.943027	0.514570
9324.070244	3.266493	123.144531	-212.402344
9324.072246	3.266695	35.933640	0.544772
9325.122772	3.266112	198.144531	12.890625
9325.124774	3.266889	35.935776	0.511524
9326.150846	3.264888	118.945312	-219.140625
9326.152847	3.266794	118.945312	-219.140625
9326.154847	3.267228	35.939507	0.549409
9327.202880	3.265625	197.851562	12.890625
9327.204880	3.266399	197.851562	12.890625
9327.206880	3.266437	35.930805	0.517046
9328.235804	3.265721	123.339844	-214.453125
9328.237805	3.266501	35.931515	0.540867
9329.284781	3.265860	199.414062	10.058594
9329.286784	3.266886	199.414062	10.058594
9329.288789	3.266861	35.935474	0.518970
9330.320842	3.267000	112.109375	-226.464844
9330.324842	3.267044	35.937489	0.546232
9331.368928	3.266792	198.632812	10.253906
9331.370930	3.266952	35.936466	0.521894
9332.401018	3.266562	120.019531	-217.578125
9332.403021	3.266491	35.931396	0.550602
9333.453585	3.266280	199.316406	9.863281
9333.455585	3.266558	35.932137	0.524074
9334.482137	3.264946	119.140625	-217.773437
9334.484139	3.266657	119.140625	-217.773437
9334.486139	3.266926	35.936184	0.554854
9335.532687	3.264883	200.195312	9.472656
9335.534689	3.266525	200.195312	9.472656
9335.536691	3.266670	35.933376	0.522472
9336.564742	3.267075	119.824219	-215.820312
9336.566741	3.267081	35.937885	0.553101
9337.617343	3.267036	201.562500	8.789062
9337.619346	3.266988	35.936867	0.525689
9338.643352	3.265538	117.675781	-218.261719
9338.645354	3.266374	117.675781	-218.261719
9338.647354	3.266297	35.929272	0.560656
9339.699404	3.264688	202.050781	9.375000
9339.701406	3.266580	202.050781	9.375000
9339.703406	3.266683	35.933510	0.526837
9340.725414	3.264865	116.113281	-217.578125
9340.727414	3.266633	116.113281	-217.578125
9340.731412	3.267415	35.941563	0.564946
9341.777489	3.265117	201.074219	11.718750
9341.779492	3.266039	201.074219	11.718750
9341.781491	3.266256	35.928810	0.536536
9342.811572	3.266493	122.167969	-208.300781
9342.813574	3.266518	35.931698	0.561454
9343.862530	3.265766	201.855469	10.546875
9343.864531	3.266798	201.855469	10.546875
9343.866529	3.266811	35.934925	0.536429
9344.890578	3.265319	120.507812	-208.496094
9344.892579	3.266526	120.507812	-208.496094
9344.894580	3.266518	35.931698	0.571833
9345.945168	3.266872	201.660156	10.058594
9345.947170	3.266604	201.660156	10.058594
9345.949172	3.266728	35.934006	0.539470
9346.975211	3.266130	117.480469	-211.718750
9346.977213	3.266860	35.935459	0.573133
9348.027295	3.264490	201.953125	7.910156
9348.029296	3.267085	201.953125	7.910156
9348.031294	3.267212	35.939331	0.543827
9349.057334	3.265822	115.820312	-213.671875
9349.059336	3.267000	115.820312	-213.671875
9349.061336	3.267122	35.938335	0.569839
9350.109401	3.267276	200.585937	8.007812
9350.113401	3.267617	35.943790	0.543025
9351.141942	3.266324	115.039062	-215.429687
9351.143947	3.266226	35.928482	0.617429
9352.192014	3.266814	200.195312	5.761719
9352.194015	3.266893	35.935822	0.833650
9353.220985	3.265985	117.578125	-214.257812
9353.224985	3.266776	117.578125	-214.257812
9353.226987	3.266787	35.934662	0.579167
9354.271058	3.265154	200.878906	4.101562
9354.273059	3.266665	200.878906	4.101562
9354.275059	3.267243	35.939678	0.543980
9355.307080	3.266070	108.789062	-224.414062
9355.309081	3.266104	35.927143	0.568325
9356.351093	3.265511	204.492187	2.636719
9356.353095	3.267123	204.492187	2.636719
9356.355094	3.267033	35.937363	0.560574
9357.391130	3.266866	111.718750	-224.121094
9357.393132	3.266947	35.936417	0.578462
9358.433237	3.264083	204.003906	2.246094
9358.435237	3.266428	204.003906	2.246094
9358.437239	3.267020	35.937222	0.561500
9359.471317	3.263351	108.984375	-227.734375
9359.473321	3.266544	108.984375	-227.734375
9359.475320	3.266801	35.934811	0.578669
9360.517382	3.264726	204.492187	1.855469
9360.519385	3.266144	204.492187	1.855469
9360.521384	3.267163	35.938789	0.563676
9361.553448	3.266711	118.457031	-216.503906
9361.555452	3.267176	35.938934	0.582284
9362.599949	3.266779	205.175781	0.390625
9362.601952	3.267051	35.937565	0.858564
9363.635929	3.266562	108.496094	-227.343750
9363.637929	3.267192	35.939110	0.582454
9364.685951	3.266502	204.589844	2.148437
9364.687952	3.266375	35.930122	0.567041
9365.717952	3.263746	108.984375	-226.464844
9365.719956	3.266564	108.984375	-226.464844
9365.721956	3.266929	35.936222	0.588918
9366.761969	3.266847	205.957031	0.488281
9366.763971	3.266966	35.936626	0.567798
9367.799973	3.264535	112.988281	-221.582031
9367.801975	3.266164	112.988281	-221.582031
9367.803975	3.266361	35.929970	0.588871
9368.846017	3.265575	205.664062	1.171875
9368.848019	3.266640	205.664062	1.171875
9368.850020	3.266513	35.931648	0.567795
9369.880052	3.265587	119.042969	-213.964844
9369.882054	3.265654	119.042969	-213.964844
9369.884054	3.267223	35.939453	0.593005
9370.930635	3.267210	207.128906	-0.390625
9370.932638	3.267019	35.937202	0.573600
9371.962694	3.266050	114.941406	-217.773437
9371.964696	3.266260	35.928856	0.597451
9373.010755	3.263991	206.738281	2.148437
9373.012754	3.266562	206.738281	2.148437
9373.014754	3.267185	35.939037	0.575994
9374.049316	3.266593	111.425781	-220.507812
9374.055315	3.266779	35.934570	0.595386
9375.095374	3.266287	207.519531	2.050781
9375.097377	3.266793	35.934723	0.634129
9376.131432	3.266485	107.617187	-223.339844
9376.133432	3.266500	35.931496	0.600578
9377.177523	3.266801	208.984375	2.050781
9377.179526	3.266989	35.936874	0.578274
9378.209994	3.264760	113.867187	-214.550781
9378.211993	3.266436	113.867187	-214.550781
9378.213994	3.266555	35.932110	0.606893
9379.260021	3.266389	209.277344	4.687500
9379.262022	3.267005	35.937054	0.582436
9380.290587	3.264717	108.789062	-219.042969
9380.292590	3.266914	108.789062	-219.042969
9380.294591	3.267184	35.939022	0.604017
9381.344601	3.266303	210.253906	5.468750
9381.346603	3.266427	35.930698	0.581954
9382.371197	3.263744	111.425781	-215.722656
9382.373200	3.266606	111.425781	-215.722656
9382.375201	3.267050	35.937550	0.606209
9383.423683	3.266645	211.523437	5.761719
9383.425686	3.267249	35.939739	0.699922
9384.453781	3.265249	111.523437	-215.625000
9384.455783	3.266704	111.523437	-215.625000
9384.457784	3.267051	35.937565	0.610804
9385.508317	3.266318	212.500000	5.175781
9385.510320	3.266952	35.936466	0.586179
9386.538401	3.266288	109.082031	-219.531250
9386.540405	3.266981	35.936787	0.610248
9387.590400	3.266541	213.281250	5.078125
9387.592402	3.266997	35.936966	0.591851
9388.620964	3.266513	120.312500	-209.082031
9388.622966	3.266627	35.932899	0.611882
9389.671526	3.265882	214.062500	3.417969
9389.673529	3.266473	35.931202	0.595965
9390.703586	3.265739	112.109375	-216.015625
9390.705587	3.266362	112.109375	-216.015625
9390.707586	3.267084	35.937923	0.611113
9391.755661	3.266426	213.574219	2.734375
9391.757662	3.266451	213.574219	2.734375
9391.759664	3.266660	35.933258	0.595380
9392.787660	3.267515	109.375000	-220.800781
9392.789660	3.267300	35.940296	0.618321
9393.837733	3.265916	215.234375	0.585937
9393.839734	3.266508	35.931583	0.596353
9394.867761	3.267049	120.605469	-208.496094
9394.869763	3.266971	35.936680	0.617541
9395.915785	3.264180	215.234375	1.171875
9395.917786	3.266186	215.234375	1.171875
9395.919786	3.266502	35.931522	0.599877
9396.951851	3.265384	114.746094	-214.648437
9396.953852	3.266498	114.746094	-214.648437
9396.955850	3.266469	35.931160	0.615600
9398.002384	3.267228	215.039062	1.757812
9398.004385	3.267225	35.939472	0.733237
9399.030935	3.265024	111.132812	-217.773437
9399.032938	3.265221	111.132812	-217.773437
9399.034938	3.267187	35.939056	0.620016
